# XDI/1.0 Demeter/0.9.26
# Demeter.output_filetype: multicolumn normalized mu(E)
# Element.symbol: Cu
# Element.edge: K
# Column.1: energy eV
# Column.2: Cu-ISS_twin_b17_A3_Cu10_PAA50_merge
# Column.3: Cu-ISS_twin_b17_B4_Cu20_PAA50_merge
# Column.4: Cu-C5_ISS_batch21_A3_Cu10_PAA50_merge
# Column.5: Cu-C7_ISS_batch22_B4_Cu20_PAA50_merge
# Column.6: CuO_standard.001
# Column.7: Cufoil.003
# Column.8: Cu2O_standard.001
# Column.9: Cu(OH)2_standard.001
# Column.10: CuF2_standard.001
#------------------------
#  energy  Cu-ISS_twin_b17_A3_Cu10_PAA50_merge  Cu-ISS_twin_b17_B4_Cu20_PAA50_merge  Cu-C5_ISS_batch21_A3_Cu10_PAA50_merge  Cu-C7_ISS_batch22_B4_Cu20_PAA50_merge  CuO_standard.001  Cufoil.003  Cu2O_standard.001  Cu(OH)2_standard.001  CuF2_standard.001
  8778.0601      -0.14906432E-03   0.41085639E-03   0.52551076E-03   0.41330999E-03   0.86167442E-02   0.50261010E-02   0.45509153E-02   0.99312000E-02   0.50394684E-02
  8788.0776       0.19240091E-03   0.21890092E-03  -0.60780257E-03   0.23916580E-03   0.70202250E-02   0.45839698E-02   0.39046329E-02   0.81065369E-02   0.43896743E-02
  8798.0387       0.51952742E-03   0.29799310E-03  -0.72100669E-03   0.30226293E-03   0.61604077E-02   0.41443287E-02   0.32717169E-02   0.67918317E-02   0.37269848E-02
  8808.0096      -0.16221311E-03   0.38809194E-03   0.40557217E-03  -0.49598118E-04   0.52512988E-02   0.37042524E-02   0.25800083E-02   0.52375710E-02   0.32435427E-02
  8817.9937      -0.41640057E-03  -0.12097403E-03   0.78749669E-03  -0.28081229E-03   0.39819977E-02   0.32635941E-02   0.22272664E-02   0.43700277E-02   0.25942009E-02
  8828.0246       0.47896052E-04  -0.17347945E-03  -0.11931464E-03  -0.44995337E-03   0.30123064E-02   0.28208733E-02   0.15817169E-02   0.34748415E-02   0.19412668E-02
  8837.9948       0.10137497E-03  -0.27674241E-03   0.30797406E-03  -0.22275697E-03   0.21270807E-02   0.23808259E-02   0.11473284E-02   0.22665851E-02   0.12571808E-02
  8848.0253       0.65029482E-04  -0.11972356E-03  -0.57266807E-03  -0.60025077E-04   0.10224937E-02   0.19381218E-02   0.69106289E-03   0.12272604E-02   0.89958111E-03
  8858.0218      -0.63714165E-04  -0.22763379E-03  -0.26916174E-03  -0.20768899E-03   0.32870501E-03   0.14969187E-02   0.23495065E-03   0.37422916E-03   0.44906355E-03
  8868.0347      -0.23562933E-03  -0.30219314E-03   0.27817832E-03  -0.16164588E-03   0.10544859E-03   0.10549902E-02  -0.13765431E-03  -0.24593399E-03  -0.76871220E-04
  8878.0233       0.26005919E-04  -0.47384642E-03  -0.42411560E-03  -0.23609788E-03  -0.95478941E-03   0.61413148E-03  -0.53442264E-03  -0.75815263E-03  -0.35474641E-03
  8888.0283      -0.14264850E-03  -0.86073676E-04   0.60796346E-03  -0.15939523E-03  -0.10665080E-02   0.18318768E-03  -0.70016610E-03  -0.12714386E-02  -0.82551144E-03
  8898.0257      -0.31261852E-03   0.10094889E-04  -0.17317957E-03  -0.88577411E-04  -0.11844941E-02  -0.17812046E-03  -0.88828900E-03  -0.13866360E-02  -0.10073436E-02
  8908.0326       0.11442303E-03   0.14076215E-03  -0.52778783E-03   0.42414207E-03  -0.18101883E-02  -0.46897565E-03  -0.98071770E-03  -0.16949533E-02  -0.12907223E-02
  8918.0284       0.41563070E-03   0.72498106E-03   0.50088644E-03   0.55483268E-03  -0.18051932E-02  -0.57723093E-03  -0.11500229E-02  -0.23022762E-02  -0.13961772E-02
  8928.0266       0.75575686E-03   0.92208521E-03   0.67418505E-03   0.79426149E-03  -0.13716353E-02  -0.61887044E-03  -0.83293413E-03  -0.19110985E-02  -0.11634963E-02
  8938.0169       0.14529867E-02   0.21745537E-02   0.33022282E-02   0.17090182E-02  -0.12481570E-02  -0.44331000E-03  -0.42748407E-03  -0.85367663E-03  -0.88217465E-03
  8948.0164       0.35497668E-02   0.34286316E-02   0.39286460E-02   0.32272295E-02  -0.31839998E-03   0.27255917E-03   0.66330919E-03   0.22764241E-03  -0.43596129E-04
  8949.9956       0.37880081E-02   0.37056147E-02   0.35410883E-02   0.34178204E-02   0.58174171E-04   0.48892944E-03   0.86550949E-03   0.41681033E-03   0.27886599E-03
  8951.9929       0.37814363E-02   0.41997666E-02   0.37701150E-02   0.38153504E-02   0.27512069E-03   0.85051190E-03   0.13131794E-02   0.48916633E-03   0.36435142E-03
  8953.9912       0.40543821E-02   0.45579525E-02   0.45893409E-02   0.44190720E-02   0.62123165E-03   0.11958796E-02   0.18340887E-02   0.84681968E-03   0.77135251E-03
  8955.9904       0.51083295E-02   0.55239906E-02   0.54468797E-02   0.50280039E-02   0.10287407E-02   0.16473583E-02   0.23419649E-02   0.19418795E-02   0.11681050E-02
  8957.9905       0.54666682E-02   0.59899535E-02   0.56582518E-02   0.58684897E-02   0.17045585E-02   0.22257262E-02   0.30164228E-02   0.19289126E-02   0.15602734E-02
  8959.9949       0.63372270E-02   0.67525197E-02   0.63263209E-02   0.66929799E-02   0.19213993E-02   0.28816989E-02   0.38205869E-02   0.25472651E-02   0.21882520E-02
  8961.9969       0.64909316E-02   0.74227434E-02   0.71891094E-02   0.75305510E-02   0.29870370E-02   0.37361942E-02   0.48892124E-02   0.34587486E-02   0.28028739E-02
  8964.0066       0.76240481E-02   0.85470219E-02   0.89764337E-02   0.83459366E-02   0.31162533E-02   0.48001805E-02   0.61123730E-02   0.43668435E-02   0.35482312E-02
  8966.0000       0.86545314E-02   0.99479937E-02   0.10868917E-01   0.10203533E-01   0.46655353E-02   0.62855138E-02   0.75495900E-02   0.50247682E-02   0.43848480E-02
  8968.0012       0.10921856E-01   0.11715066E-01   0.11946898E-01   0.11757522E-01   0.59987971E-02   0.82309562E-02   0.98427017E-02   0.68333858E-02   0.56937019E-02
  8968.4826       0.10886711E-01   0.12099853E-01   0.12578519E-01   0.12268571E-01   0.62745915E-02   0.88753284E-02   0.10438818E-01   0.69311299E-02   0.58428731E-02
  8968.9814       0.11605284E-01   0.12245135E-01   0.11553420E-01   0.12906961E-01   0.68537372E-02   0.95149155E-02   0.11041256E-01   0.70089011E-02   0.64374379E-02
  8969.4802       0.11213431E-01   0.13066489E-01   0.12651904E-01   0.13536414E-01   0.74700951E-02   0.10267320E-01   0.11811338E-01   0.71103885E-02   0.67788137E-02
  8969.9860       0.12118628E-01   0.13903563E-01   0.12863306E-01   0.14659260E-01   0.79240253E-02   0.11043116E-01   0.12618135E-01   0.79050970E-02   0.71813320E-02
  8970.4815       0.12837919E-01   0.14663748E-01   0.14974488E-01   0.15327398E-01   0.80573964E-02   0.11974131E-01   0.13581852E-01   0.81597300E-02   0.76735289E-02
  8970.9909       0.13743079E-01   0.15232260E-01   0.15434577E-01   0.15695381E-01   0.84425992E-02   0.12974328E-01   0.14583860E-01   0.93896194E-02   0.80273358E-02
  8971.4830       0.14312835E-01   0.16499018E-01   0.15973933E-01   0.16889276E-01   0.95088897E-02   0.14143556E-01   0.15793836E-01   0.94800378E-02   0.86484340E-02
  8971.9856       0.14997828E-01   0.16983417E-01   0.17579873E-01   0.18119336E-01   0.10021174E-01   0.15435225E-01   0.16962790E-01   0.99578607E-02   0.92909425E-02
  8972.4882       0.15781048E-01   0.17859829E-01   0.18506766E-01   0.19382965E-01   0.10747732E-01   0.16947447E-01   0.18584226E-01   0.10395549E-01   0.98941137E-02
  8972.9944       0.16805714E-01   0.18559505E-01   0.19559714E-01   0.20654928E-01   0.11406033E-01   0.18714123E-01   0.20349765E-01   0.11058414E-01   0.10425369E-01
  8973.4971       0.18042704E-01   0.19668825E-01   0.19677522E-01   0.21892724E-01   0.12514883E-01   0.20789497E-01   0.22219227E-01   0.12293538E-01   0.11266299E-01
  8974.0069       0.19769340E-01   0.21246654E-01   0.21379889E-01   0.23926064E-01   0.13792519E-01   0.23264183E-01   0.24491673E-01   0.13379899E-01   0.12400386E-01
  8974.4994       0.20829701E-01   0.23566427E-01   0.23452744E-01   0.26236621E-01   0.15204584E-01   0.26284963E-01   0.27193847E-01   0.13472277E-01   0.13452414E-01
  8975.0057       0.22034936E-01   0.25267750E-01   0.25356760E-01   0.29050524E-01   0.16670778E-01   0.30053356E-01   0.30576264E-01   0.15159257E-01   0.15196257E-01
  8975.5053       0.24399589E-01   0.27406702E-01   0.29171042E-01   0.32505722E-01   0.18550418E-01   0.35045547E-01   0.34768840E-01   0.16626072E-01   0.17864504E-01
  8976.0083       0.27917149E-01   0.31990154E-01   0.33148718E-01   0.36868892E-01   0.21240650E-01   0.41396105E-01   0.39693008E-01   0.20203648E-01   0.21636538E-01
  8976.5010       0.32760145E-01   0.36528542E-01   0.38928589E-01   0.42056527E-01   0.24892284E-01   0.50078923E-01   0.45992901E-01   0.23595619E-01   0.25120015E-01
  8976.9972       0.36638732E-01   0.42602649E-01   0.45987312E-01   0.49276863E-01   0.29232463E-01   0.62572969E-01   0.54315882E-01   0.28265080E-01   0.26790228E-01
  8977.4969       0.40927922E-01   0.49241945E-01   0.50452856E-01   0.57735525E-01   0.33088742E-01   0.83542820E-01   0.66607069E-01   0.30704490E-01   0.25518490E-01
  8978.0002       0.43431596E-01   0.55484417E-01   0.60131130E-01   0.68661971E-01   0.34413618E-01   0.11949850       0.85277728E-01   0.31045848E-01   0.23964499E-01
  8978.5035       0.48644901E-01   0.64749343E-01   0.71648072E-01   0.84901292E-01   0.35757824E-01   0.17993415       0.11493931       0.30941021E-01   0.23307920E-01
  8979.0069       0.55100985E-01   0.79594744E-01   0.94474114E-01   0.11485325       0.39061222E-01   0.26652252       0.16655107       0.32741709E-01   0.24204050E-01
  8979.5138       0.68824524E-01   0.10131485       0.12810835       0.16447203       0.46109822E-01   0.36022632       0.25320515       0.37518909E-01   0.25474673E-01
  8980.0069       0.85536386E-01   0.13154179       0.17533861       0.23482677       0.55088879E-01   0.43121199       0.37589624       0.42349238E-01   0.27617132E-01
  8980.5070       0.10884090       0.17006060       0.23002744       0.31647459       0.66569981E-01   0.47219269       0.51544501       0.50137006E-01   0.30296429E-01
  8981.0037       0.13056495       0.20717395       0.28267605       0.38017527       0.81133542E-01   0.48996865       0.60330055       0.60916298E-01   0.33665149E-01
  8981.5108       0.14870274       0.23204470       0.30859822       0.41072664       0.10068050       0.49069650       0.61242746       0.74685203E-01   0.37737670E-01
  8982.0007       0.15806974       0.23756980       0.31554057       0.40928892       0.13005643       0.48176139       0.56598909       0.93742903E-01   0.42907380E-01
  8982.5010       0.16715771       0.24010863       0.31105363       0.39983856       0.17328370       0.47056191       0.51323853       0.12292248       0.49406914E-01
  8983.0083       0.17790404       0.24594515       0.31709699       0.39274954       0.23270245       0.46544061       0.47821112       0.16480536       0.57327433E-01
  8983.5122       0.19769928       0.25914632       0.32772987       0.39624955       0.29915634       0.47055825       0.47042017       0.21548511       0.67244380E-01
  8984.0127       0.22842199       0.28521403       0.35091345       0.41263511       0.36082772       0.48559294       0.48136912       0.27093604       0.80501365E-01
  8984.5132       0.26920376       0.32103108       0.38893486       0.44181439       0.40641555       0.50652406       0.50392391       0.32143808       0.98839477E-01
  8985.0034       0.31885137       0.36577499       0.42515679       0.47479382       0.42815458       0.52811443       0.53109541       0.36271077       0.12374924
  8985.5006       0.37196237       0.41479800       0.46982080       0.50988606       0.43383699       0.54820618       0.55872987       0.39319160       0.15838248
  8986.0013       0.42836061       0.46581563       0.50775776       0.54493076       0.43127001       0.56771835       0.58502372       0.41403954       0.20487183
  8986.5021       0.48019937       0.50921646       0.54644801       0.57857899       0.43163683       0.58847291       0.61129601       0.42958740       0.26260937
  8987.0098       0.52704356       0.55221343       0.58388509       0.61056475       0.44364588       0.61261285       0.64019111       0.44623016       0.33305142
  8987.5142       0.56890347       0.58862208       0.61972624       0.64086221       0.47108101       0.64093037       0.67137234       0.46891744       0.41375481
  8988.0082       0.60528270       0.62377688       0.65026376       0.67616394       0.51379627       0.67338996       0.70237234       0.50190658       0.49922489
  8988.5162       0.64154342       0.65721282       0.68609505       0.70896008       0.56824811       0.71168402       0.73411461       0.54862846       0.59312123
  8989.0068       0.67691996       0.69261169       0.72092809       0.74162467       0.62691125       0.75289822       0.76626596       0.60116912       0.68302442
  8989.5009       0.71598805       0.72869228       0.76194137       0.78024035       0.69002649       0.79798411       0.80200074       0.66188796       0.76580227
  8990.0021       0.76508908       0.77775487       0.80697305       0.82363353       0.76136862       0.84414566       0.84301882       0.72948504       0.83579912
  8990.5033       0.82493426       0.83212871       0.87099353       0.87450204       0.83813102       0.88920480       0.88773999       0.80435721       0.89173075
  8991.0046       0.89203711       0.89523581       0.92682310       0.92651732       0.91413983       0.93300030       0.93599204       0.88466993       0.94252080
  8991.5129       0.96683617       0.96390374       0.98908858       0.98293173       0.97942110       0.97458779       0.98573424       0.95976067       0.99631717
  8992.0143        1.0400466        1.0288704        1.0313521        1.0294515        1.0263925        1.0113365        1.0291100        1.0233304        1.0596723
  8992.5088        1.0989834        1.0818799        1.0829193        1.0685216        1.0607810        1.0401776        1.0590208        1.0736880        1.1302329
  8993.0138        1.1507582        1.1290866        1.1236072        1.1011470        1.0920985        1.0591809        1.0791310        1.1159518        1.2068908
  8993.5049        1.1944496        1.1633507        1.1539207        1.1299479        1.1215092        1.0667573        1.0931069        1.1489996        1.2795694
  8993.9961        1.2269498        1.1914172        1.1778122        1.1540976        1.1515933        1.0644286        1.1042137        1.1760568        1.3428418
  8994.5117        1.2563296        1.2180925        1.1987372        1.1718798        1.1847563        1.0538941        1.1145005        1.2026724        1.3950094
  8995.0065        1.2764417        1.2386914        1.2180783        1.1866712        1.2220639        1.0390675        1.1215827        1.2304543        1.4268797
  8995.5118        1.2945763        1.2504538        1.2331063        1.1989290        1.2640534        1.0220326        1.1219599        1.2646950        1.4419085
  8996.0136        1.3049214        1.2591955        1.2343293        1.2013910        1.3036559        1.0047151        1.1132428        1.2999603        1.4423237
  8996.5156        1.3102734        1.2653746        1.2382979        1.2025420        1.3294395       0.98918690        1.0963181        1.3281654        1.4311897
  8997.0106        1.3106250        1.2634615        1.2340976        1.1964387        1.3368352       0.97640409        1.0743572        1.3411007        1.4118239
  8997.5021        1.3025559        1.2575721        1.2256974        1.1846533        1.3298315       0.96719546        1.0513994        1.3383631        1.3861408
  8998.0042        1.2965192        1.2472525        1.2164684        1.1720071        1.3137882       0.96168267        1.0286237        1.3234872        1.3551436
  8998.4994        1.2843674        1.2387732        1.1994310        1.1566181        1.2953441       0.96113700        1.0084545        1.3008775        1.3206413
  8999.0016        1.2732687        1.2236499        1.1905914        1.1396992        1.2748797       0.96639539       0.98956639        1.2749411        1.2846591
  8999.5108        1.2555175        1.2065481        1.1695404        1.1248618        1.2525381       0.97778485       0.97158990        1.2462972        1.2461444
  9000.0131        1.2337229        1.1881438        1.1552553        1.1127692        1.2258457       0.99438416       0.95589948        1.2172789        1.2077819
  9000.5120        1.2097415        1.1710185        1.1426372        1.0966041        1.1940244        1.0149160       0.94317739        1.1858418        1.1725389
  9001.0109        1.1905687        1.1489225        1.1223898        1.0804059        1.1585664        1.0371903       0.93281194        1.1525166        1.1398831
  9001.5065        1.1676668        1.1310370        1.1018427        1.0657852        1.1227392        1.0586198       0.92591848        1.1172899        1.1103415
  9002.0020        1.1438539        1.1078496        1.0835284        1.0541384        1.0923034        1.0762245       0.92338379        1.0970043        1.0843490
  9002.5081        1.1218775        1.0910782        1.0718978        1.0368229        1.0621131        1.0865051       0.92121124        1.0762878        1.0578043
  9003.0038        1.0984524        1.0726929        1.0585458        1.0288081        1.0414730        1.0877920       0.92408662        1.0559977        1.0318059
  9004.0093        1.0579995        1.0386347        1.0314504        1.0130846        1.0051318        1.0685659       0.93293940        1.0148387       0.97906765
  9005.0150        1.0233037        1.0105349        1.0134214       0.99904375       0.97531837        1.0364842       0.94445801       0.97367033       0.92631731
  9006.0209       0.99820312       0.99053563        1.0012962       0.99028615       0.95159447        1.0063544       0.95623211       0.94992367       0.89542504
  9007.0760       0.98330970       0.97888925       0.99152579       0.98742892       0.93858128       0.98358026       0.97006349       0.94834957       0.89025471
  9008.1384       0.97181826       0.96956835       0.98833513       0.98633818       0.93831344       0.96461562       0.98579934       0.94676467       0.88504889
  9009.2219       0.96244992       0.96509436       0.98386285       0.98367586       0.94554230       0.94497762       0.99966829       0.94514809       0.87973902
  9010.3128       0.95768254       0.96012780       0.97856128       0.98092309       0.95311544       0.93127440        1.0062341       0.94254137       0.87675343
  9011.4319       0.94754168       0.95634352       0.97264398       0.97913048       0.95639447       0.92785645        1.0049468       0.93824229       0.87858951
  9012.5827       0.94057990       0.94715971       0.96286469       0.97459513       0.95452256       0.93208591        1.0014023       0.93382116       0.88047771
  9013.7304       0.94002710       0.94077288       0.95639248       0.96735768       0.94977151       0.93962699       0.99919166       0.92941231       0.88236067
  9014.8993       0.92990342       0.93289076       0.95131922       0.96049015       0.94335090       0.95042057       0.99412012       0.92192312       0.88128463
  9016.0966       0.91739314       0.92579339       0.94134955       0.95239643       0.93566113       0.96622678       0.98038727       0.90638939       0.87298771
  9017.3187       0.90857879       0.91616874       0.93357205       0.94083167       0.92388190       0.98717355       0.95912298       0.89053335       0.86451864
  9018.5412       0.90400770       0.90846999       0.92220816       0.92928168       0.90595283        1.0088068       0.93878450       0.87467291       0.85604722
  9019.7955       0.88848933       0.89641797       0.90933827       0.92002073       0.88256142        1.0300935       0.92424209       0.85908260       0.84754567
  9021.0642       0.88023375       0.88939723       0.90005630       0.91150867       0.85743782        1.0508938       0.91416032       0.84618395       0.83966870
  9022.3614       0.86924566       0.88168451       0.89460856       0.90604967       0.83650153        1.0712424       0.90541644       0.83299641       0.83161530
  9023.6659       0.86922899       0.87766809       0.89109490       0.90013539       0.82184210        1.0873210       0.89838380       0.81973366       0.82351597
  9024.9919       0.86329168       0.87576044       0.89067103       0.89691519       0.81202034        1.0971032       0.89368516       0.80889287       0.81782671
  9026.3463       0.86816405       0.87668265       0.88932106       0.89824430       0.80744790        1.0965716       0.89072421       0.81734768       0.83123489
  9027.7258       0.87390954       0.87923705       0.89224401       0.89989480       0.80977813        1.0802444       0.88898464       0.82595849       0.84489046
  9029.0951       0.88091459       0.88453209       0.89877800       0.90207766       0.82014491        1.0599810       0.88898700       0.83450624       0.85844603
  9030.5175       0.89562626       0.89723294       0.90320114       0.90851911       0.83698584        1.0360489       0.89179951       0.84414632       0.87301617
  9031.9404       0.90648655       0.90606527       0.91751158       0.91873489       0.85753469        1.0155057       0.89857147       0.86614381       0.89317384
  9033.3708       0.92313234       0.92101006       0.92901937       0.92777127       0.88023617        1.0006239       0.90847388       0.88825708       0.91343762
  9034.8334       0.93795456       0.93653982       0.94333831       0.93984243       0.90422142       0.99129945       0.91974565       0.91086677       0.93415630
  9036.3069       0.95462364       0.95119742       0.95833618       0.95421611       0.92889897       0.98833406       0.93096068       0.93358140       0.95503133
  9037.7985       0.96809816       0.96267220       0.97478327       0.96757375       0.95426983       0.99169513       0.94181513       0.95195128       0.96695498
  9039.3329       0.98627632       0.97988952       0.98471700       0.97911001       0.97924211       0.99830854       0.95361930       0.97084754       0.97917498
  9040.8608        1.0001233       0.99217769       0.99806009       0.98986990        1.0005277        1.0058912       0.96618457       0.98966366       0.99134314
  9042.4314        1.0103924        1.0041626        1.0075637       0.99874104        1.0168113        1.0112230       0.98038794        1.0090068        1.0038521
  9044.0062        1.0206464        1.0118371        1.0186106        1.0074478        1.0293434        1.0103968       0.99284483        1.0175649        1.0074736
  9045.6026        1.0283125        1.0223032        1.0264398        1.0150555        1.0418917        1.0093770        1.0013451        1.0258690        1.0107521
  9047.2067        1.0347580        1.0243761        1.0333014        1.0218582        1.0534596        1.0083523        1.0028384        1.0342129        1.0140462
  9048.8608        1.0391431        1.0320382        1.0368032        1.0272129        1.0605865        1.0072957       0.99851223        1.0428166        1.0174430
  9050.5013        1.0397152        1.0358802        1.0345408        1.0283282        1.0624517        1.0062478       0.99138414        1.0411669        1.0179663
  9052.1813        1.0420739        1.0319940        1.0390485        1.0277070        1.0583990        1.0051746       0.98657677        1.0387264        1.0182780
  9053.8726        1.0399493        1.0312748        1.0365354        1.0284261        1.0499505        1.0040942       0.98553814        1.0362696        1.0185918
  9055.5432        1.0446684        1.0325688        1.0328462        1.0274783        1.0408707        1.0030270       0.98586407        1.0338426        1.0189017
  9057.2746        1.0398472        1.0346704        1.0311891        1.0289371        1.0322449        1.0019210       0.98609988        1.0287653        1.0166734
  9059.0244        1.0375787        1.0285702        1.0308300        1.0268681        1.0236340        1.0008033       0.98484811        1.0232260        1.0140154
  9060.7855        1.0365205        1.0285963        1.0314321        1.0253190        1.0147150       0.99967832       0.98320221        1.0176509        1.0113402
  9062.5791        1.0309247        1.0270372        1.0302083        1.0235976        1.0069249       0.99853257       0.98218993        1.0119728        1.0086156
  9064.3876        1.0289834        1.0242885        1.0266150        1.0193671        1.0003292       0.99737732       0.98349236        1.0064975        1.0075816
  9066.2216        1.0216722        1.0176413        1.0226840        1.0175049       0.99504809       0.99620575       0.98660922        1.0009943        1.0068326
  9068.0599        1.0141941        1.0118979        1.0183879        1.0162103       0.99006234       0.99503144       0.99111753       0.99547826        1.0060819
  9069.9132        1.0117460        1.0100171        1.0152797        1.0168764       0.98478759       0.99384758       0.99619132       0.98991735        1.0053250
  9071.7956        1.0068543        1.0059730        1.0157273        1.0145147       0.98014117       0.99264511        1.0009004       0.98562497        1.0028056
  9073.6965       0.99959717        1.0014089        1.0116941        1.0125914       0.97679273       0.99143080        1.0050345       0.98161952       0.99932507
  9075.6160       0.99613658       0.99560532        1.0040421        1.0089822       0.97388408       0.99020463        1.0083546       0.97757496       0.99581051
  9077.5577       0.99195766       0.99277856        1.0039632        1.0077424       0.97179122       0.98896432        1.0108712       0.97348376       0.99225543
  9079.5215       0.98668654       0.98798195        1.0035386        1.0056549       0.97079852       0.98770985        1.0126890       0.97093642       0.98649557
  9081.4933       0.98519968       0.98696647       0.99882978        1.0004867       0.96992947       0.98645029        1.0138655       0.96884303       0.98011336
  9083.4837       0.97900167       0.98092042       0.99382137       0.99793691       0.96852307       0.98517881        1.0135963       0.96672984       0.97367076
  9085.4892       0.97861637       0.98164180       0.99044090       0.99600121       0.96660324       0.98389767        1.0110826       0.96460060       0.96717922
  9087.5349       0.97525987       0.97858647       0.99129033       0.99323950       0.96546947       0.98259094        1.0056986       0.96399706       0.96431641
  9089.5921       0.97548322       0.97667375       0.98551781       0.99134530       0.96521419       0.98127679       0.99805622       0.96392316       0.96263352
  9091.6538       0.97135711       0.97290656       0.98351801       0.99071633       0.96540228       0.97995976       0.98951224       0.96384911       0.96094694
  9093.7522       0.97041929       0.97258548       0.98051539       0.98570784       0.96518384       0.97861935       0.98093688       0.96377374       0.95923042
  9095.8765       0.97167471       0.97225775       0.98115390       0.98471855       0.96428038       0.97726237       0.97284966       0.96464234       0.96082748
  9097.9911       0.96841613       0.97283016       0.98386025       0.98215562       0.96422531       0.97591157       0.96601657       0.96586938       0.96363416
  9100.1317       0.97144156       0.97172120       0.98507156       0.98361437       0.96468859       0.97454417       0.96092968       0.96711151       0.96647532
  9102.3090       0.97685950       0.97553288       0.98724011       0.98188217       0.96505232       0.97315330       0.95767249       0.96837495       0.96936524
  9104.4838       0.97687893       0.97707035       0.98434647       0.98172075       0.96559317       0.97176404       0.95677362       0.96977033       0.97335335
  9106.6919       0.98141369       0.98208611       0.98885240       0.98495566       0.96700221       0.97035355       0.95803715       0.97124732       0.97788122
  9108.9225       0.98358634       0.98303880       0.99022464       0.98743200       0.96785388       0.96892865       0.96189376       0.97273940       0.98245533
  9111.1649       0.98629992       0.98562112       0.99268303       0.98889017       0.96779934       0.96749618       0.96769970       0.97423941       0.98705375
  9113.4192       0.99060527       0.98687863       0.99791272       0.99458547       0.96803666       0.96605613       0.97410099       0.97689375       0.99162167
  9115.7069       0.99512727       0.99131048       0.99823287       0.99442671       0.96970631       0.96459476       0.97975756       0.98015368       0.99623088
  9117.9994       0.99258713       0.99559017       0.99485477       0.99599492       0.97284746       0.96313035       0.98356380       0.98342040        1.0008497
  9120.3253       0.99796052       0.99448166       0.99867923       0.99840673       0.97760773       0.96164458       0.98623169       0.98673477        1.0055359
  9122.6739       0.99829855       0.99855049        1.0105665       0.99956073       0.98403968       0.96014428       0.98830520       0.99198010        1.0083008
  9125.0095        1.0035442        1.0016978        1.0084437        1.0033033       0.99190925       0.95865236       0.99027909       0.99817828        1.0100595
  9127.3965        1.0040860        1.0038792        1.0066022        1.0064476        1.0000716       0.95712755       0.99220732        1.0045131        1.0118569
  9129.7884        1.0071130        1.0093801        1.0087741        1.0097320        1.0071335       0.95559962       0.99398535        1.0108609        1.0136580
  9132.2031        1.0110409        1.0105564        1.0171551        1.0095226        1.0127592       0.95405710       0.99595011        1.0149531        1.0155334
  9134.6335        1.0123927        1.0117111        1.0196367        1.0117635        1.0166606       0.95250455       0.99832377        1.0177362        1.0174535
  9137.0869        1.0134833        1.0160017        1.0218051        1.0156174        1.0185735       0.95093737        1.0014193        1.0205455        1.0193916
  9139.5632        1.0164581        1.0159868        1.0226053        1.0192052        1.0193458       0.94935552        1.0046332        1.0233811        1.0213478
  9142.0589        1.0227994        1.0169965        1.0233400        1.0213441        1.0195836       0.94776129        1.0068012        1.0243249        1.0222016
  9144.5704        1.0211555        1.0153184        1.0226646        1.0185739        1.0195419       0.94615696        1.0073519        1.0240853        1.0223742
  9147.0833        1.0196525        1.0153737        1.0250589        1.0196747        1.0190149       0.94455172        1.0064940        1.0238456        1.0225469
  9149.6445        1.0194917        1.0147841        1.0270928        1.0196576        1.0177784       0.94291561        1.0044261        1.0236013        1.0227230
  9152.2108        1.0161064        1.0132068        1.0278597        1.0180688        1.0163750       0.94127626        1.0021308        1.0217548        1.0217050
  9154.7859        1.0138986        1.0126279        1.0196832        1.0165539        1.0148127       0.93963136        1.0000525        1.0188166        1.0199116
  9157.3985        1.0129527        1.0102796        1.0177920        1.0150472        1.0123478       0.93796241       0.99819744        1.0158356        1.0180919
  9160.0199        1.0101547        1.0046513        1.0201838        1.0141560        1.0084520       0.93628786       0.99684531        1.0128445        1.0162662
  9162.6682        1.0039382        1.0024577        1.0202337        1.0140479        1.0031694       0.93459616       0.99629265        1.0086836        1.0146481
  9165.3362        1.0057055        1.0054726        1.0137890        1.0149848       0.99715224       0.93289188       0.99666668        1.0036375        1.0131814
  9168.0093        1.0015849        1.0045391        1.0186945        1.0110489       0.99046655       0.93118427       0.99780666       0.99858159        1.0117118
  9170.7167        1.0012318        1.0006643        1.0084788        1.0112043       0.98404711       0.92945480       0.99890269       0.99346090        1.0102234
  9173.4294       0.99953077       0.99865780        1.0064943        1.0086527       0.97912531       0.92772196       0.99973651       0.99150904        1.0084418
  9176.1655       0.99889494       0.99778772        1.0086724        1.0072461       0.97701138       0.92597417        1.0006851       0.99202092        1.0064160
  9178.9323       0.99542523       0.99751273        1.0087748        1.0089731       0.97910669       0.92420674        1.0015827       0.99253856        1.0043674
  9181.7081       0.99824844       0.99573502        1.0040144        1.0085582       0.98357794       0.92243357        1.0025060       0.99305788        1.0023122
  9184.5002       0.99488552       0.99698897        1.0060497        1.0048869       0.98877087       0.92065002        1.0033667       0.99445410        1.0006215
  9187.3194       0.99687778       0.99264234        1.0100735        1.0063937       0.99360208       0.91884908        1.0037386       0.99658742       0.99922174
  9190.1441       0.99359675       0.99663691        1.0082944        1.0045407       0.99633919       0.91704469        1.0036584       0.99872484       0.99781926
  9193.0034       0.99701340       0.99418820        1.0063384        1.0041748       0.99677476       0.91521821        1.0033196        1.0008884       0.99639961
  9195.8718       0.99437147       0.99421562        1.0044830        1.0042696       0.99583676       0.91338591        1.0026587        1.0016671       0.99578302
  9198.7711       0.99500780       0.99524518        1.0016863        1.0025432       0.99439269       0.91153379        1.0018098        1.0012249       0.99586909
  9201.6688       0.99520063       0.99588776        1.0045282        1.0021365       0.99287344       0.90968281        1.0009319        1.0007830       0.99595510
  9204.5938       0.99620995       0.99619843        1.0000154        1.0039034       0.99138604       0.90781430       0.99979134        1.0003368       0.99604194
  9207.5391       0.99683270       0.99612304        1.0017478        1.0016229       0.98970347       0.90593289       0.99832764        1.0006363       0.99600917
  9210.5191       0.99524412       0.99644877        1.0094758        1.0025398       0.98871646       0.90402923       0.99678523        1.0016458       0.99586367
  9213.4902       0.99916664       0.99764151        1.0045550        1.0043066       0.98957921       0.90213132       0.99541021        1.0026523       0.99571862
  9216.5036       0.99777736       0.99941594        1.0058523        1.0052634       0.99256721       0.90020641       0.99401749        1.0036730       0.99557150
  9219.5189       0.99771224       0.99986448        1.0106840        1.0056189       0.99695510       0.89828022       0.99298343        1.0049234       0.99557509
  9222.5730       0.99991114        1.0011804        1.0042007        1.0045051        1.0017339       0.89632931       0.99258918        1.0064175       0.99572801
  9225.6254        1.0016410        1.0007086        1.0084900        1.0034877        1.0055923       0.89437942       0.99252174        1.0079109       0.99588085
  9228.7130       0.99919426       0.99975021        1.0079120        1.0034772        1.0069279       0.89240709       0.99269142        1.0094215       0.99603545
  9231.8027        1.0011979       0.99916243        1.0072703        1.0040299        1.0055663       0.89043341       0.99299692        1.0097088       0.99639689
  9234.9203        1.0003450        1.0033768        1.0082610        1.0076232        1.0028757       0.88844193       0.99362025        1.0087436       0.99697655
  9238.0620       0.99851857        1.0008960        1.0138649        1.0055425        1.0005188       0.88643497       0.99457552        1.0077710       0.99756071
  9241.2134        1.0008468        1.0004620        1.0090014        1.0080151       0.99916102       0.88442190       0.99565576        1.0067954       0.99814664
  9244.3891        1.0017956        1.0018510        1.0057418        1.0054151       0.99946724       0.88239331       0.99679322        1.0067865       0.99822413
  9247.5891       0.99901228        1.0028390        1.0092646        1.0057204        1.0010297       0.88034914       0.99793305        1.0078349       0.99773494
  9250.7914        1.0002847        1.0013753        1.0065100        1.0049178        1.0029952       0.87830353       0.99903895        1.0088839       0.99724541
  9254.0366        1.0012465        1.0004926        1.0086186        1.0063235        1.0049779       0.87623052        1.0000017        1.0099470       0.99674932
  9257.2841        1.0031812        1.0030931        1.0065489        1.0040923        1.0061261       0.87415602        1.0008478        1.0104031       0.99521086
  9260.5672       0.99991887        1.0012000        1.0082408        1.0052423        1.0069085       0.87205876        1.0016077        1.0101615       0.99248906
  9263.8491        1.0016108        1.0030096        1.0134188        1.0062669        1.0069085       0.86996235        1.0022897        1.0099199       0.98976835
  9267.1703        1.0022718        1.0003613        1.0102983        1.0089975        1.0057014       0.86784075        1.0028976        1.0096755       0.98701497
  9270.4829        1.0015814        1.0008681        1.0084744        1.0107500        1.0036497       0.86572470        1.0032565        1.0089005       0.98440680
  9273.8350        1.0021299        1.0022423        1.0068876        1.0094019        1.0011053       0.86358340        1.0033664        1.0074958       0.98193006
  9277.2044       0.99944264        1.0012097        1.0061826        1.0084115       0.99848912       0.86143103        1.0033763        1.0060838       0.97944052
  9280.5875       0.99954800        1.0020781        1.0065167        1.0055011       0.99691848       0.85926994        1.0032167        1.0046661       0.97694089
  9283.9991       0.99769368       0.99666575        1.0079072        1.0061279       0.99723082       0.85709061        1.0029592        1.0036080       0.97450573
  9287.4207       0.99725584       0.99887568        1.0071727        1.0059684       0.99857737       0.85490489        1.0026776        1.0029943       0.97216647
  9290.8673       0.99889320       0.99973041        1.0078580        1.0050195       0.99982592       0.85270325        1.0023466        1.0023761       0.96981017
  9294.3277       0.99638967       0.99700130        1.0065044        1.0036060        1.0001408       0.85049279        1.0020818        1.0017555       0.96744444
  9297.8130       0.99989052        1.0008302        1.0020056        1.0058260        1.0003764       0.84826635        1.0019018        1.0009691       0.96499691
  9301.3048       0.99282076       0.99623974        1.0047329        1.0029424        1.0007957       0.84603582        1.0016197       0.99998045       0.96246509
  9304.8292       0.99382047       0.99637918        1.0008089        1.0027619        1.0002640       0.84378449        1.0013105       0.99898261       0.95990966
  9308.3637       0.99501220       0.99750235        1.0013858        1.0037088       0.99933498       0.84152664        1.0010457       0.99798189       0.95734682
  9311.9235       0.99546853       0.99588748        1.0037516        1.0019739       0.99815998       0.83925269        1.0006285       0.99703195       0.95477493
  9315.4897       0.99218217       0.99369132        1.0039168        1.0008738       0.99690504       0.83697457        1.0002968       0.99615479       0.95221008
  9319.1000       0.99062616       0.99448988        1.0015228        1.0024275       0.99573595       0.83466834        1.0000425       0.99526680       0.94961358
  9322.7132       0.99338236       0.99610863        1.0021668        1.0011809       0.99573861       0.83236028       0.99978402       0.99437811       0.94701502
  9326.3405       0.99114609       0.99374780        1.0007635        1.0000267       0.99634449       0.83004319       0.99950586       0.99396513       0.94442397
  9330.0044       0.99346875       0.99487206        1.0006294       0.99936020       0.99695091       0.82770267       0.99949875       0.99418979       0.94183067
  9333.6676       0.99395495       0.99597587       0.99897517       0.99970248       0.99776963       0.82536266       0.99947365       0.99441441       0.93923794
  9337.3638       0.99215330       0.99616582        1.0022792       0.99976854       0.99800450       0.82300155       0.99931904       0.99464106       0.93662183
  9341.0667       0.99292563       0.99297204        1.0011687       0.99918447       0.99807166       0.82063612       0.99915101       0.99433254       0.93395811
  9344.8066       0.99335209       0.99302302       0.99864042       0.99602619       0.99769830       0.81824711       0.99899498       0.99327187       0.93120767
  9348.5458       0.99111990       0.99299083        1.0021480       0.99653196       0.99653514       0.81585855       0.99900448       0.99221140       0.92845774
  9352.3069       0.99685524       0.99258109       0.99373181       0.99861867       0.99556899       0.81345597       0.99899188       0.99114471       0.92569169
  9356.1126       0.99605560       0.99505885       0.99509175       0.99739160       0.99520593       0.81102488       0.99891906       0.99006536       0.92289280
  9359.8989       0.99415072       0.99403148       0.99860424       0.99624038       0.99591456       0.80860625       0.99880080       0.98899154       0.92010826
  9363.7299       0.99789049       0.99416285        1.0000534       0.99637094       0.99728769       0.80615903       0.99871271       0.98790503       0.91729080
  9367.5792       0.99572917       0.99465894       0.99480393       0.99724075       0.99963835       0.80370009       0.99866972       0.98681332       0.91445985
  9371.4280       0.99636576       0.99526481        1.0003357       0.99657037        1.0023614       0.80124150       0.99856204       0.98572176       0.91162930
  9375.3180       0.99493303       0.99498867       0.99793613       0.99870866        1.0042254       0.79875661       0.99850954       0.98461852       0.90876848
  9379.2074       0.99505895       0.99505109       0.99966795        1.0012367        1.0054671       0.79627203       0.99861502       0.98351542       0.90590801
  9383.1306       0.99541588       0.99704712        1.0020216       0.99878634        1.0062033       0.79376593       0.99893558       0.98240277       0.90302276
  9387.0838       0.99398618       0.99858404        1.0021471       0.99899282        1.0062488       0.79124068       0.99912381       0.98128161       0.90011547
  9391.0289       0.99549284       0.99733775       0.99794413        1.0001463        1.0059145       0.78872054       0.99915464       0.98016273       0.89721406
  9395.0117       0.99170740       0.99583431       0.99523035       0.99779906        1.0056418       0.78617633       0.99934569       0.97903316       0.89428495
  9399.0056       0.99541240       0.99706185        1.0013949       0.99770575        1.0042829       0.78362505       0.99963597       0.97790044       0.89134768
  9403.0030       0.99209184       0.99744317        1.0005588       0.99884767        1.0030997       0.78107154       0.99989567       0.97676674       0.88840786
  9407.0650       0.99579390       0.99837166       0.99764140       0.99833323        1.0023660       0.77847678        1.0001600       0.97561473       0.88542053
  9411.1038       0.99391588       0.99842733        1.0018115       0.99864072        1.0015945       0.77589681        1.0001938       0.97446928       0.88245025
  9415.1691       0.99413550       0.99800930        1.0014093       0.99829923        1.0015013       0.77329991        1.0004621       0.97331631       0.87946047
  9419.2686       0.99692665       0.99979656       0.99735288       0.99593497        1.0014680       0.77068115        1.0007918       0.97215364       0.87644552
  9423.3795       0.99948235       0.99715200       0.99438339       0.99615028        1.0013435       0.76805515        1.0009883       0.97098776       0.87342224
  9427.4940       0.99425613       0.99344291       0.99287295       0.99602000        1.0003606       0.76542681        1.0013096       0.96982083       0.87039626
  9431.6583       0.99377731       0.99744523       0.99854011       0.99548233       0.99908678       0.76276669        1.0014451       0.96863980       0.86733369
  9435.8148       0.99428578       0.99801603       0.99767811       0.99728824       0.99821515       0.76011153        1.0014643       0.96746096       0.86427683
  9439.9905       0.99522775       0.99561407       0.99259391       0.99454630       0.99790584       0.75744414        1.0016462       0.96627670       0.86120590
  9444.2084       0.99373255       0.99665919       0.99202407       0.99825197       0.99728116       0.75474975        1.0015319       0.96508045       0.85810387
  9448.4379       0.99380587       0.99628886       0.98809886       0.99388413       0.99702166       0.75204796        1.0014274       0.96388092       0.85499334
  9452.6675       0.99405744       0.99626640       0.99552420       0.99305564       0.99726918       0.74934616        1.0013739       0.96268138       0.85188279
  9456.9279       0.99670426       0.99555547       0.99509242       0.99504758       0.99780676       0.74662463        1.0014182       0.96147308       0.84874952
  9461.2154       0.99599322       0.99367616       0.99559783       0.99635358       0.99840938       0.74388577        1.0013537       0.96025709       0.84559630
  9465.5147       0.99242727       0.99691510       0.99176761       0.99752201       0.99960102       0.74113943        1.0011055       0.95903777       0.84243447
  9469.8257       0.99492650       0.99712251       0.99115851       0.99583695        1.0004548       0.73838559        1.0008823       0.95781513       0.83926401
  9474.1717       0.99229632       0.99580021       0.99414827       0.99633331        1.0012171       0.73560938        1.0007610       0.95658255       0.83606778
  9478.5334       0.99577360       0.99349703       0.99816038       0.99724531        1.0020720       0.73282312        1.0004735       0.95534552       0.83286000
  9482.9031       0.99259438       0.99511493       0.99576771       0.99407756        1.0022366       0.73003177        1.0002743       0.95410622       0.82964635
  9487.3003       0.99467711       0.99496378       0.99094719       0.99587055        1.0020503       0.72722288        1.0002058       0.95285914       0.82641251
  9491.7250       0.99431512       0.99386534       0.99014522       0.99567234        1.0016716       0.72439642        1.0000643       0.95160425       0.82315844
  9496.1578       0.99666281       0.99641204       0.99405611       0.99396909        1.0012554       0.72156478       0.99982835       0.95034706       0.81989840
  9500.5948       0.99533346       0.99509294       0.99471957       0.99487070        1.0011922       0.71873043       0.99971182       0.94908868       0.81663524
  9505.0790       0.99785072       0.99459113       0.99446850       0.99325044        1.0011334       0.71586596       0.99962532       0.94781691       0.81333741
  9509.5675       0.99830606       0.99768579       0.99114182       0.99195570        1.0012631       0.71299872       0.99963680       0.94654392       0.81003639
  9514.0721       0.99313889       0.99748817       0.99169584       0.99337399        1.0013579       0.71012122       0.99983353       0.94526638       0.80672356
  9518.5967       0.99832604       0.99759851       0.99183947       0.99420871        1.0013942       0.70723093       0.99975437       0.94398316       0.80339600
  9523.1531        1.0010154       0.99780612       0.99016612       0.99202974        1.0013450       0.70432032       0.99980481       0.94269091       0.80004505
  9527.7296       0.99748783       0.99980398       0.99121895       0.99316699        1.0005101       0.70139685       0.99980827       0.94139295       0.79667929
  9532.2989       0.99756273       0.99819163       0.98472352       0.99076208        1.0004479       0.69847802       0.99979196       0.94009706       0.79331887
  9536.9080       0.99845797       0.99858659       0.98353829       0.99364224        1.0005159       0.69553374       0.99997338       0.93878986       0.78992916
  9541.5374        1.0020634       0.99946625       0.98289663       0.99378623        1.0005797       0.69257650        1.0000334       0.93747692       0.78652452
  9546.1872       0.99859618       0.99850039       0.98840778       0.99418774        1.0011871       0.68960627        1.0000253       0.93615820       0.78310493
  9550.8455       0.99810372        1.0036588       0.98881485       0.99277047        1.0015349       0.68663057        1.0002430       0.93483705       0.77967904
  9555.5163        1.0066490        1.0027453       0.99980879       0.99803413        1.0013419       0.68364685        1.0002610       0.93351235       0.77624392
  9560.2155        1.0317571        1.0200043        1.0222863        1.0099888        1.0013263       0.68064502        1.0001970       0.93217960       0.77278795
  9564.9471        1.0286657        1.0206966        1.0226919        1.0088650        1.0013136       0.67762250        1.0002396       0.93083767       0.76930815
  9569.6835        1.0081711        1.0086748       0.99870774       0.99863234        1.0013343       0.67459692        1.0001639       0.92949438       0.76582484
  9574.4287        1.0087265        1.0064778       0.99769157       0.99972983        1.0017594       0.67156575        1.0003029       0.92814861       0.76233508
  9579.2143        1.0093153        1.0064937       0.99651089       0.99950128        1.0019990       0.66850871        1.0003986       0.92679135       0.75881555
  9584.0207        1.0083171        1.0072644       0.99224504        1.0004460        1.0022316       0.66543841        1.0004126       0.92542821       0.75528075
  9588.8201        1.0118228        1.0067706       0.99673418       0.99865590        1.0022629       0.66237258        1.0004617       0.92406704       0.75175109
  9593.6483        1.0116497        1.0072881       0.99528410       0.99950517        1.0021353       0.65928836        1.0005386       0.92269772       0.74820026
  9598.5093        1.0134629        1.0114890        1.0001186       0.99983058        1.0014922       0.65618317        1.0005035       0.92131909       0.74462529
  9603.3873        1.0139887        1.0073838       0.99639769        1.0031871        1.0011830       0.65306713        1.0005579       0.91993563       0.74103783
  9608.2704        1.0154840        1.0086269        1.0009408       0.99980489        1.0009772       0.64994785        1.0004296       0.91855074       0.73744664
  9613.1825        1.0139348        1.0112057        1.0002715        1.0010970        1.0005108       0.64681002        1.0004070       0.91715762       0.73383409
  9618.1077        1.0114036        1.0102927       0.99499212       0.99754676        1.0001524       0.64366381        1.0005509       0.91576077       0.73021189
